transmittance,probability_density
2.683e-04,0.000e+00
8.050e-04,0.000e+00
1.342e-03,0.000e+00
1.878e-03,0.000e+00
2.415e-03,0.000e+00
2.952e-03,0.000e+00
3.488e-03,0.000e+00
4.025e-03,3.727e-02
4.562e-03,9.316e-02
5.099e-03,1.863e-02
5.635e-03,5.590e-02
6.172e-03,1.677e-01
6.709e-03,1.863e-01
7.245e-03,3.354e-01
7.782e-03,1.863e-01
8.319e-03,2.981e-01
8.855e-03,6.149e-01
9.392e-03,6.708e-01
9.929e-03,7.267e-01
1.047e-02,6.521e-01
1.100e-02,1.118e+00
1.154e-02,1.267e+00
1.208e-02,1.509e+00
1.261e-02,1.751e+00
1.315e-02,1.677e+00
1.369e-02,2.404e+00
1.422e-02,2.553e+00
1.476e-02,3.279e+00
1.530e-02,3.279e+00
1.583e-02,4.062e+00
1.637e-02,4.379e+00
1.691e-02,5.031e+00
1.744e-02,5.199e+00
1.798e-02,6.559e+00
1.852e-02,6.689e+00
1.905e-02,7.900e+00
1.959e-02,9.465e+00
2.013e-02,9.596e+00
2.066e-02,1.071e+01
2.120e-02,1.168e+01
2.174e-02,1.252e+01
2.227e-02,1.295e+01
2.281e-02,1.507e+01
2.335e-02,1.621e+01
2.388e-02,1.819e+01
2.442e-02,2.031e+01
2.496e-02,2.187e+01
2.549e-02,2.253e+01
2.603e-02,2.527e+01
2.657e-02,2.644e+01
2.710e-02,2.782e+01
2.764e-02,3.056e+01
2.818e-02,3.374e+01
2.871e-02,3.496e+01
2.925e-02,3.891e+01
2.979e-02,3.924e+01
3.032e-02,4.280e+01
3.086e-02,4.373e+01
3.140e-02,4.716e+01
3.193e-02,5.077e+01
3.247e-02,5.398e+01
3.301e-02,5.482e+01
3.354e-02,5.758e+01
3.408e-02,6.039e+01
3.462e-02,6.192e+01
3.515e-02,6.180e+01
3.569e-02,6.281e+01
3.623e-02,6.531e+01
3.676e-02,6.259e+01
3.730e-02,6.274e+01
3.784e-02,5.961e+01
3.837e-02,5.890e+01
3.891e-02,5.577e+01
3.945e-02,5.195e+01
3.998e-02,4.891e+01
4.052e-02,4.518e+01
4.106e-02,3.995e+01
4.159e-02,3.604e+01
4.213e-02,3.086e+01
4.267e-02,2.765e+01
4.320e-02,2.249e+01
4.374e-02,1.986e+01
4.428e-02,1.563e+01
4.481e-02,1.351e+01
4.535e-02,1.144e+01
4.589e-02,9.242e+00
4.642e-02,6.875e+00
4.696e-02,4.994e+00
4.750e-02,4.490e+00
4.803e-02,3.335e+00
4.857e-02,2.366e+00
4.911e-02,1.696e+00
4.964e-02,1.062e+00
5.018e-02,9.316e-01
5.072e-02,3.913e-01
5.125e-02,3.540e-01
5.179e-02,2.422e-01
5.233e-02,1.491e-01
5.286e-02,9.316e-02
5.340e-02,1.118e-01
5.394e-02,1.863e-02
5.447e-02,0.000e+00
5.501e-02,1.863e-02
5.555e-02,1.863e-02
5.608e-02,1.863e-02
5.662e-02,0.000e+00
5.716e-02,0.000e+00
5.769e-02,0.000e+00
5.823e-02,0.000e+00
5.877e-02,0.000e+00
5.930e-02,0.000e+00
5.984e-02,0.000e+00
6.038e-02,0.000e+00
6.091e-02,0.000e+00
6.145e-02,0.000e+00
6.199e-02,0.000e+00
6.252e-02,0.000e+00
6.306e-02,0.000e+00
6.360e-02,0.000e+00
6.413e-02,0.000e+00
6.467e-02,0.000e+00
6.521e-02,0.000e+00
6.574e-02,0.000e+00
6.628e-02,0.000e+00
6.682e-02,0.000e+00
6.735e-02,0.000e+00
6.789e-02,0.000e+00
6.843e-02,0.000e+00
6.896e-02,0.000e+00
6.950e-02,0.000e+00
7.004e-02,0.000e+00
7.057e-02,0.000e+00
7.111e-02,0.000e+00
7.165e-02,0.000e+00
7.218e-02,0.000e+00
7.272e-02,0.000e+00
7.326e-02,0.000e+00
7.379e-02,0.000e+00
7.433e-02,0.000e+00
7.487e-02,0.000e+00
7.540e-02,0.000e+00
7.594e-02,0.000e+00
7.648e-02,0.000e+00
7.702e-02,0.000e+00
7.755e-02,0.000e+00
7.809e-02,0.000e+00
7.863e-02,0.000e+00
7.916e-02,0.000e+00
7.970e-02,0.000e+00
8.024e-02,0.000e+00
8.077e-02,0.000e+00
8.131e-02,0.000e+00
8.185e-02,0.000e+00
8.238e-02,0.000e+00
8.292e-02,0.000e+00
8.346e-02,0.000e+00
8.399e-02,0.000e+00
8.453e-02,0.000e+00
8.507e-02,0.000e+00
8.560e-02,0.000e+00
8.614e-02,0.000e+00
8.668e-02,0.000e+00
8.721e-02,0.000e+00
8.775e-02,0.000e+00
8.829e-02,0.000e+00
8.882e-02,0.000e+00
8.936e-02,0.000e+00
8.990e-02,0.000e+00
9.043e-02,0.000e+00
9.097e-02,0.000e+00
9.151e-02,0.000e+00
9.204e-02,0.000e+00
9.258e-02,0.000e+00
9.312e-02,0.000e+00
9.365e-02,0.000e+00
9.419e-02,0.000e+00
9.473e-02,0.000e+00
9.526e-02,0.000e+00
9.580e-02,0.000e+00
9.634e-02,0.000e+00
9.687e-02,0.000e+00
9.741e-02,0.000e+00
9.795e-02,0.000e+00
9.848e-02,0.000e+00
9.902e-02,0.000e+00
9.956e-02,0.000e+00
1.001e-01,0.000e+00
1.006e-01,0.000e+00
1.012e-01,0.000e+00
1.017e-01,0.000e+00
1.022e-01,0.000e+00
1.028e-01,0.000e+00
1.033e-01,0.000e+00
1.038e-01,0.000e+00
1.044e-01,0.000e+00
1.049e-01,0.000e+00
1.055e-01,0.000e+00
1.060e-01,0.000e+00
1.065e-01,0.000e+00
1.071e-01,0.000e+00
