transmittance,probability_density
4.197e-04,0.000e+00
1.259e-03,0.000e+00
2.098e-03,0.000e+00
2.938e-03,0.000e+00
3.777e-03,0.000e+00
4.616e-03,3.578e-02
5.455e-03,1.193e-02
6.295e-03,1.193e-02
7.134e-03,2.385e-02
7.973e-03,3.578e-02
8.813e-03,7.156e-02
9.652e-03,5.963e-02
1.049e-02,9.541e-02
1.133e-02,1.431e-01
1.217e-02,1.431e-01
1.301e-02,3.339e-01
1.385e-02,2.147e-01
1.469e-02,2.862e-01
1.553e-02,3.339e-01
1.637e-02,6.082e-01
1.721e-02,4.174e-01
1.804e-02,5.605e-01
1.888e-02,7.036e-01
1.972e-02,8.944e-01
2.056e-02,1.014e+00
2.140e-02,1.109e+00
2.224e-02,1.252e+00
2.308e-02,1.515e+00
2.392e-02,1.276e+00
2.476e-02,1.801e+00
2.560e-02,2.027e+00
2.644e-02,2.540e+00
2.728e-02,2.326e+00
2.812e-02,2.612e+00
2.896e-02,3.208e+00
2.980e-02,3.137e+00
3.063e-02,3.256e+00
3.147e-02,4.281e+00
3.231e-02,4.258e+00
3.315e-02,4.723e+00
3.399e-02,5.057e+00
3.483e-02,5.772e+00
3.567e-02,6.082e+00
3.651e-02,6.774e+00
3.735e-02,6.869e+00
3.819e-02,7.752e+00
3.903e-02,7.883e+00
3.987e-02,9.398e+00
4.071e-02,9.696e+00
4.155e-02,1.014e+01
4.238e-02,1.083e+01
4.322e-02,1.255e+01
4.406e-02,1.252e+01
4.490e-02,1.360e+01
4.574e-02,1.406e+01
4.658e-02,1.510e+01
4.742e-02,1.646e+01
4.826e-02,1.832e+01
4.910e-02,1.810e+01
4.994e-02,1.986e+01
5.078e-02,2.039e+01
5.162e-02,2.233e+01
5.246e-02,2.343e+01
5.330e-02,2.409e+01
5.413e-02,2.514e+01
5.497e-02,2.527e+01
5.581e-02,2.863e+01
5.665e-02,2.918e+01
5.749e-02,3.046e+01
5.833e-02,3.191e+01
5.917e-02,3.281e+01
6.001e-02,3.492e+01
6.085e-02,3.473e+01
6.169e-02,3.373e+01
6.253e-02,3.430e+01
6.337e-02,3.524e+01
6.421e-02,3.309e+01
6.505e-02,3.355e+01
6.589e-02,3.129e+01
6.672e-02,3.270e+01
6.756e-02,3.119e+01
6.840e-02,2.949e+01
6.924e-02,2.742e+01
7.008e-02,2.581e+01
7.092e-02,2.509e+01
7.176e-02,2.298e+01
7.260e-02,2.014e+01
7.344e-02,1.894e+01
7.428e-02,1.620e+01
7.512e-02,1.426e+01
7.596e-02,1.386e+01
7.680e-02,1.150e+01
7.764e-02,1.035e+01
7.847e-02,8.849e+00
7.931e-02,7.967e+00
8.015e-02,6.965e+00
8.099e-02,5.188e+00
8.183e-02,4.711e+00
8.267e-02,3.649e+00
8.351e-02,3.327e+00
8.435e-02,3.125e+00
8.519e-02,2.159e+00
8.603e-02,1.729e+00
8.687e-02,1.777e+00
8.771e-02,1.002e+00
8.855e-02,8.825e-01
8.939e-02,8.944e-01
9.022e-02,5.486e-01
9.106e-02,5.486e-01
9.190e-02,4.293e-01
9.274e-02,2.862e-01
9.358e-02,2.385e-01
9.442e-02,1.670e-01
9.526e-02,1.073e-01
9.610e-02,1.550e-01
9.694e-02,4.770e-02
9.778e-02,8.348e-02
9.862e-02,2.385e-02
9.946e-02,3.578e-02
1.003e-01,0.000e+00
1.011e-01,1.193e-02
1.020e-01,1.193e-02
1.028e-01,0.000e+00
1.037e-01,0.000e+00
1.045e-01,0.000e+00
1.053e-01,0.000e+00
1.062e-01,0.000e+00
1.070e-01,0.000e+00
1.079e-01,0.000e+00
1.087e-01,0.000e+00
1.095e-01,0.000e+00
1.104e-01,0.000e+00
1.112e-01,0.000e+00
1.120e-01,0.000e+00
1.129e-01,0.000e+00
1.137e-01,0.000e+00
1.146e-01,0.000e+00
1.154e-01,0.000e+00
1.162e-01,0.000e+00
1.171e-01,0.000e+00
1.179e-01,0.000e+00
1.188e-01,0.000e+00
1.196e-01,0.000e+00
1.204e-01,0.000e+00
1.213e-01,0.000e+00
1.221e-01,0.000e+00
1.230e-01,0.000e+00
1.238e-01,0.000e+00
1.246e-01,0.000e+00
1.255e-01,0.000e+00
1.263e-01,0.000e+00
1.272e-01,0.000e+00
1.280e-01,0.000e+00
1.288e-01,0.000e+00
1.297e-01,0.000e+00
1.305e-01,0.000e+00
1.314e-01,0.000e+00
1.322e-01,0.000e+00
1.330e-01,0.000e+00
1.339e-01,0.000e+00
1.347e-01,0.000e+00
1.355e-01,0.000e+00
1.364e-01,0.000e+00
1.372e-01,0.000e+00
1.381e-01,0.000e+00
1.389e-01,0.000e+00
1.397e-01,0.000e+00
1.406e-01,0.000e+00
1.414e-01,0.000e+00
1.423e-01,0.000e+00
1.431e-01,0.000e+00
1.439e-01,0.000e+00
1.448e-01,0.000e+00
1.456e-01,0.000e+00
1.465e-01,0.000e+00
1.473e-01,0.000e+00
1.481e-01,0.000e+00
1.490e-01,0.000e+00
1.498e-01,0.000e+00
1.507e-01,0.000e+00
1.515e-01,0.000e+00
1.523e-01,0.000e+00
1.532e-01,0.000e+00
1.540e-01,0.000e+00
1.549e-01,0.000e+00
1.557e-01,0.000e+00
1.565e-01,0.000e+00
1.574e-01,0.000e+00
1.582e-01,0.000e+00
1.590e-01,0.000e+00
1.599e-01,0.000e+00
1.607e-01,0.000e+00
1.616e-01,0.000e+00
1.624e-01,0.000e+00
1.632e-01,0.000e+00
1.641e-01,0.000e+00
1.649e-01,0.000e+00
1.658e-01,0.000e+00
1.666e-01,0.000e+00
1.674e-01,0.000e+00
