transmittance,probability_density
2.732e-04,2.672e+00
8.196e-04,8.285e+00
1.366e-03,1.402e+01
1.912e-03,1.983e+01
2.459e-03,2.569e+01
3.005e-03,3.159e+01
3.552e-03,3.752e+01
4.098e-03,4.348e+01
4.645e-03,4.946e+01
5.191e-03,5.547e+01
5.737e-03,6.149e+01
6.284e-03,6.753e+01
6.830e-03,7.359e+01
7.377e-03,7.966e+01
7.923e-03,8.575e+01
8.470e-03,9.184e+01
9.016e-03,9.795e+01
9.562e-03,1.041e+02
1.011e-02,1.102e+02
1.066e-02,1.163e+02
1.120e-02,1.225e+02
1.175e-02,1.287e+02
1.229e-02,1.348e+02
1.284e-02,1.410e+02
1.339e-02,1.472e+02
1.393e-02,0.000e+00
1.448e-02,0.000e+00
1.503e-02,0.000e+00
1.557e-02,0.000e+00
1.612e-02,0.000e+00
1.667e-02,0.000e+00
1.721e-02,0.000e+00
1.776e-02,0.000e+00
1.831e-02,0.000e+00
1.885e-02,0.000e+00
1.940e-02,0.000e+00
1.994e-02,0.000e+00
2.049e-02,0.000e+00
2.104e-02,0.000e+00
2.158e-02,0.000e+00
2.213e-02,0.000e+00
2.268e-02,0.000e+00
2.322e-02,0.000e+00
2.377e-02,0.000e+00
2.432e-02,0.000e+00
2.486e-02,0.000e+00
2.541e-02,0.000e+00
2.596e-02,0.000e+00
2.650e-02,0.000e+00
2.705e-02,0.000e+00
2.759e-02,0.000e+00
2.814e-02,0.000e+00
2.869e-02,0.000e+00
2.923e-02,0.000e+00
2.978e-02,0.000e+00
3.033e-02,0.000e+00
3.087e-02,0.000e+00
3.142e-02,0.000e+00
3.197e-02,0.000e+00
3.251e-02,0.000e+00
3.306e-02,0.000e+00
3.361e-02,0.000e+00
3.415e-02,0.000e+00
3.470e-02,0.000e+00
3.524e-02,0.000e+00
3.579e-02,0.000e+00
3.634e-02,0.000e+00
3.688e-02,0.000e+00
3.743e-02,0.000e+00
3.798e-02,0.000e+00
3.852e-02,0.000e+00
3.907e-02,0.000e+00
3.962e-02,0.000e+00
4.016e-02,0.000e+00
4.071e-02,0.000e+00
4.126e-02,0.000e+00
4.180e-02,0.000e+00
4.235e-02,0.000e+00
4.289e-02,0.000e+00
4.344e-02,0.000e+00
4.399e-02,0.000e+00
4.453e-02,0.000e+00
4.508e-02,0.000e+00
4.563e-02,0.000e+00
4.617e-02,0.000e+00
4.672e-02,0.000e+00
4.727e-02,0.000e+00
4.781e-02,0.000e+00
4.836e-02,0.000e+00
4.891e-02,0.000e+00
4.945e-02,0.000e+00
5.000e-02,0.000e+00
5.054e-02,0.000e+00
5.109e-02,0.000e+00
5.164e-02,0.000e+00
5.218e-02,0.000e+00
5.273e-02,0.000e+00
5.328e-02,0.000e+00
5.382e-02,0.000e+00
5.437e-02,0.000e+00
5.492e-02,0.000e+00
5.546e-02,0.000e+00
5.601e-02,0.000e+00
5.655e-02,0.000e+00
5.710e-02,0.000e+00
5.765e-02,0.000e+00
5.819e-02,0.000e+00
5.874e-02,0.000e+00
5.929e-02,0.000e+00
5.983e-02,0.000e+00
6.038e-02,0.000e+00
6.093e-02,0.000e+00
6.147e-02,0.000e+00
6.202e-02,0.000e+00
6.257e-02,0.000e+00
6.311e-02,0.000e+00
6.366e-02,0.000e+00
6.420e-02,0.000e+00
6.475e-02,0.000e+00
6.530e-02,0.000e+00
6.584e-02,0.000e+00
6.639e-02,0.000e+00
6.694e-02,0.000e+00
6.748e-02,0.000e+00
6.803e-02,0.000e+00
6.858e-02,0.000e+00
6.912e-02,0.000e+00
6.967e-02,0.000e+00
7.022e-02,0.000e+00
7.076e-02,0.000e+00
7.131e-02,0.000e+00
7.185e-02,0.000e+00
7.240e-02,0.000e+00
7.295e-02,0.000e+00
7.349e-02,0.000e+00
7.404e-02,0.000e+00
7.459e-02,0.000e+00
7.513e-02,0.000e+00
7.568e-02,0.000e+00
7.623e-02,0.000e+00
7.677e-02,0.000e+00
7.732e-02,0.000e+00
7.787e-02,0.000e+00
7.841e-02,0.000e+00
7.896e-02,0.000e+00
7.950e-02,0.000e+00
8.005e-02,0.000e+00
8.060e-02,0.000e+00
8.114e-02,0.000e+00
8.169e-02,0.000e+00
8.224e-02,0.000e+00
8.278e-02,0.000e+00
8.333e-02,0.000e+00
8.388e-02,0.000e+00
8.442e-02,0.000e+00
8.497e-02,0.000e+00
8.552e-02,0.000e+00
8.606e-02,0.000e+00
8.661e-02,0.000e+00
8.715e-02,0.000e+00
8.770e-02,0.000e+00
8.825e-02,0.000e+00
8.879e-02,0.000e+00
8.934e-02,0.000e+00
8.989e-02,0.000e+00
9.043e-02,0.000e+00
9.098e-02,0.000e+00
9.153e-02,0.000e+00
9.207e-02,0.000e+00
9.262e-02,0.000e+00
9.317e-02,0.000e+00
9.371e-02,0.000e+00
9.426e-02,0.000e+00
9.480e-02,0.000e+00
9.535e-02,0.000e+00
9.590e-02,0.000e+00
9.644e-02,0.000e+00
9.699e-02,0.000e+00
9.754e-02,0.000e+00
9.808e-02,0.000e+00
9.863e-02,0.000e+00
9.918e-02,0.000e+00
9.972e-02,0.000e+00
1.003e-01,0.000e+00
1.008e-01,0.000e+00
1.014e-01,0.000e+00
1.019e-01,0.000e+00
1.025e-01,0.000e+00
1.030e-01,0.000e+00
1.035e-01,0.000e+00
1.041e-01,0.000e+00
1.046e-01,0.000e+00
1.052e-01,0.000e+00
1.057e-01,0.000e+00
1.063e-01,0.000e+00
1.068e-01,0.000e+00
1.074e-01,0.000e+00
1.079e-01,0.000e+00
1.085e-01,0.000e+00
1.090e-01,0.000e+00
