transmittance,probability_density
4.868e-04,1.541e-01
1.460e-03,1.277e+00
2.434e-03,3.412e+00
3.407e-03,6.519e+00
4.381e-03,1.057e+01
5.354e-03,1.556e+01
6.328e-03,2.146e+01
7.301e-03,2.826e+01
8.275e-03,3.595e+01
9.248e-03,4.453e+01
1.022e-02,5.399e+01
1.120e-02,6.432e+01
1.217e-02,7.552e+01
1.314e-02,8.757e+01
1.412e-02,1.005e+02
1.509e-02,1.142e+02
1.606e-02,1.288e+02
1.704e-02,1.443e+02
1.801e-02,1.606e+02
1.898e-02,0.000e+00
1.996e-02,0.000e+00
2.093e-02,0.000e+00
2.190e-02,0.000e+00
2.288e-02,0.000e+00
2.385e-02,0.000e+00
2.482e-02,0.000e+00
2.580e-02,0.000e+00
2.677e-02,0.000e+00
2.774e-02,0.000e+00
2.872e-02,0.000e+00
2.969e-02,0.000e+00
3.067e-02,0.000e+00
3.164e-02,0.000e+00
3.261e-02,0.000e+00
3.359e-02,0.000e+00
3.456e-02,0.000e+00
3.553e-02,0.000e+00
3.651e-02,0.000e+00
3.748e-02,0.000e+00
3.845e-02,0.000e+00
3.943e-02,0.000e+00
4.040e-02,0.000e+00
4.137e-02,0.000e+00
4.235e-02,0.000e+00
4.332e-02,0.000e+00
4.429e-02,0.000e+00
4.527e-02,0.000e+00
4.624e-02,0.000e+00
4.721e-02,0.000e+00
4.819e-02,0.000e+00
4.916e-02,0.000e+00
5.014e-02,0.000e+00
5.111e-02,0.000e+00
5.208e-02,0.000e+00
5.306e-02,0.000e+00
5.403e-02,0.000e+00
5.500e-02,0.000e+00
5.598e-02,0.000e+00
5.695e-02,0.000e+00
5.792e-02,0.000e+00
5.890e-02,0.000e+00
5.987e-02,0.000e+00
6.084e-02,0.000e+00
6.182e-02,0.000e+00
6.279e-02,0.000e+00
6.376e-02,0.000e+00
6.474e-02,0.000e+00
6.571e-02,0.000e+00
6.668e-02,0.000e+00
6.766e-02,0.000e+00
6.863e-02,0.000e+00
6.961e-02,0.000e+00
7.058e-02,0.000e+00
7.155e-02,0.000e+00
7.253e-02,0.000e+00
7.350e-02,0.000e+00
7.447e-02,0.000e+00
7.545e-02,0.000e+00
7.642e-02,0.000e+00
7.739e-02,0.000e+00
7.837e-02,0.000e+00
7.934e-02,0.000e+00
8.031e-02,0.000e+00
8.129e-02,0.000e+00
8.226e-02,0.000e+00
8.323e-02,0.000e+00
8.421e-02,0.000e+00
8.518e-02,0.000e+00
8.615e-02,0.000e+00
8.713e-02,0.000e+00
8.810e-02,0.000e+00
8.908e-02,0.000e+00
9.005e-02,0.000e+00
9.102e-02,0.000e+00
9.200e-02,0.000e+00
9.297e-02,0.000e+00
9.394e-02,0.000e+00
9.492e-02,0.000e+00
9.589e-02,0.000e+00
9.686e-02,0.000e+00
9.784e-02,0.000e+00
9.881e-02,0.000e+00
9.978e-02,0.000e+00
1.008e-01,0.000e+00
1.017e-01,0.000e+00
1.027e-01,0.000e+00
1.037e-01,0.000e+00
1.047e-01,0.000e+00
1.056e-01,0.000e+00
1.066e-01,0.000e+00
1.076e-01,0.000e+00
1.085e-01,0.000e+00
1.095e-01,0.000e+00
1.105e-01,0.000e+00
1.115e-01,0.000e+00
1.124e-01,0.000e+00
1.134e-01,0.000e+00
1.144e-01,0.000e+00
1.154e-01,0.000e+00
1.163e-01,0.000e+00
1.173e-01,0.000e+00
1.183e-01,0.000e+00
1.193e-01,0.000e+00
1.202e-01,0.000e+00
1.212e-01,0.000e+00
1.222e-01,0.000e+00
1.231e-01,0.000e+00
1.241e-01,0.000e+00
1.251e-01,0.000e+00
1.261e-01,0.000e+00
1.270e-01,0.000e+00
1.280e-01,0.000e+00
1.290e-01,0.000e+00
1.300e-01,0.000e+00
1.309e-01,0.000e+00
1.319e-01,0.000e+00
1.329e-01,0.000e+00
1.339e-01,0.000e+00
1.348e-01,0.000e+00
1.358e-01,0.000e+00
1.368e-01,0.000e+00
1.378e-01,0.000e+00
1.387e-01,0.000e+00
1.397e-01,0.000e+00
1.407e-01,0.000e+00
1.416e-01,0.000e+00
1.426e-01,0.000e+00
1.436e-01,0.000e+00
1.446e-01,0.000e+00
1.455e-01,0.000e+00
1.465e-01,0.000e+00
1.475e-01,0.000e+00
1.485e-01,0.000e+00
1.494e-01,0.000e+00
1.504e-01,0.000e+00
1.514e-01,0.000e+00
1.524e-01,0.000e+00
1.533e-01,0.000e+00
1.543e-01,0.000e+00
1.553e-01,0.000e+00
1.562e-01,0.000e+00
1.572e-01,0.000e+00
1.582e-01,0.000e+00
1.592e-01,0.000e+00
1.601e-01,0.000e+00
1.611e-01,0.000e+00
1.621e-01,0.000e+00
1.631e-01,0.000e+00
1.640e-01,0.000e+00
1.650e-01,0.000e+00
1.660e-01,0.000e+00
1.670e-01,0.000e+00
1.679e-01,0.000e+00
1.689e-01,0.000e+00
1.699e-01,0.000e+00
1.708e-01,0.000e+00
1.718e-01,0.000e+00
1.728e-01,0.000e+00
1.738e-01,0.000e+00
1.747e-01,0.000e+00
1.757e-01,0.000e+00
1.767e-01,0.000e+00
1.777e-01,0.000e+00
1.786e-01,0.000e+00
1.796e-01,0.000e+00
1.806e-01,0.000e+00
1.816e-01,0.000e+00
1.825e-01,0.000e+00
1.835e-01,0.000e+00
1.845e-01,0.000e+00
1.855e-01,0.000e+00
1.864e-01,0.000e+00
1.874e-01,0.000e+00
1.884e-01,0.000e+00
1.893e-01,0.000e+00
1.903e-01,0.000e+00
1.913e-01,0.000e+00
1.923e-01,0.000e+00
1.932e-01,0.000e+00
1.942e-01,0.000e+00
