transmittance,probability_density
3.833e-05,9.704e+01
1.150e-04,6.768e+02
1.917e-04,1.811e+03
2.683e-04,3.129e+03
3.450e-04,3.395e+03
4.217e-04,2.308e+03
4.984e-04,1.101e+03
5.750e-04,3.915e+02
6.517e-04,1.071e+02
7.284e-04,2.322e+01
8.050e-04,3.261e+00
8.817e-04,5.217e-01
9.584e-04,0.000e+00
1.035e-03,0.000e+00
1.112e-03,0.000e+00
1.188e-03,0.000e+00
1.265e-03,0.000e+00
1.342e-03,0.000e+00
1.418e-03,0.000e+00
1.495e-03,0.000e+00
1.572e-03,0.000e+00
1.648e-03,0.000e+00
1.725e-03,0.000e+00
1.802e-03,0.000e+00
1.878e-03,0.000e+00
1.955e-03,0.000e+00
2.032e-03,0.000e+00
2.108e-03,0.000e+00
2.185e-03,0.000e+00
2.262e-03,0.000e+00
2.338e-03,0.000e+00
2.415e-03,0.000e+00
2.492e-03,0.000e+00
2.568e-03,0.000e+00
2.645e-03,0.000e+00
2.722e-03,0.000e+00
2.798e-03,0.000e+00
2.875e-03,0.000e+00
2.952e-03,0.000e+00
3.028e-03,0.000e+00
3.105e-03,0.000e+00
3.182e-03,0.000e+00
3.258e-03,0.000e+00
3.335e-03,0.000e+00
3.412e-03,0.000e+00
3.488e-03,0.000e+00
3.565e-03,0.000e+00
3.642e-03,0.000e+00
3.718e-03,0.000e+00
3.795e-03,0.000e+00
3.872e-03,0.000e+00
3.949e-03,0.000e+00
4.025e-03,0.000e+00
4.102e-03,0.000e+00
4.179e-03,0.000e+00
4.255e-03,0.000e+00
4.332e-03,0.000e+00
4.409e-03,0.000e+00
4.485e-03,0.000e+00
4.562e-03,0.000e+00
4.639e-03,0.000e+00
4.715e-03,0.000e+00
4.792e-03,0.000e+00
4.869e-03,0.000e+00
4.945e-03,0.000e+00
5.022e-03,0.000e+00
5.099e-03,0.000e+00
5.175e-03,0.000e+00
5.252e-03,0.000e+00
5.329e-03,0.000e+00
5.405e-03,0.000e+00
5.482e-03,0.000e+00
5.559e-03,0.000e+00
5.635e-03,0.000e+00
5.712e-03,0.000e+00
5.789e-03,0.000e+00
5.865e-03,0.000e+00
5.942e-03,0.000e+00
6.019e-03,0.000e+00
6.095e-03,0.000e+00
6.172e-03,0.000e+00
6.249e-03,0.000e+00
6.325e-03,0.000e+00
6.402e-03,0.000e+00
6.479e-03,0.000e+00
6.555e-03,0.000e+00
6.632e-03,0.000e+00
6.709e-03,0.000e+00
6.785e-03,0.000e+00
6.862e-03,0.000e+00
6.939e-03,0.000e+00
7.015e-03,0.000e+00
7.092e-03,0.000e+00
7.169e-03,0.000e+00
7.245e-03,0.000e+00
7.322e-03,0.000e+00
7.399e-03,0.000e+00
7.475e-03,0.000e+00
7.552e-03,0.000e+00
7.629e-03,0.000e+00
7.705e-03,0.000e+00
7.782e-03,0.000e+00
7.859e-03,0.000e+00
7.935e-03,0.000e+00
8.012e-03,0.000e+00
8.089e-03,0.000e+00
8.165e-03,0.000e+00
8.242e-03,0.000e+00
8.319e-03,0.000e+00
8.395e-03,0.000e+00
8.472e-03,0.000e+00
8.549e-03,0.000e+00
8.625e-03,0.000e+00
8.702e-03,0.000e+00
8.779e-03,0.000e+00
8.855e-03,0.000e+00
8.932e-03,0.000e+00
9.009e-03,0.000e+00
9.085e-03,0.000e+00
9.162e-03,0.000e+00
9.239e-03,0.000e+00
9.315e-03,0.000e+00
9.392e-03,0.000e+00
9.469e-03,0.000e+00
9.545e-03,0.000e+00
9.622e-03,0.000e+00
9.699e-03,0.000e+00
9.775e-03,0.000e+00
9.852e-03,0.000e+00
9.929e-03,0.000e+00
1.001e-02,0.000e+00
1.008e-02,0.000e+00
1.016e-02,0.000e+00
1.024e-02,0.000e+00
1.031e-02,0.000e+00
1.039e-02,0.000e+00
1.047e-02,0.000e+00
1.054e-02,0.000e+00
1.062e-02,0.000e+00
1.070e-02,0.000e+00
1.077e-02,0.000e+00
1.085e-02,0.000e+00
1.093e-02,0.000e+00
1.100e-02,0.000e+00
1.108e-02,0.000e+00
1.116e-02,0.000e+00
1.123e-02,0.000e+00
1.131e-02,0.000e+00
1.139e-02,0.000e+00
1.146e-02,0.000e+00
1.154e-02,0.000e+00
1.162e-02,0.000e+00
1.169e-02,0.000e+00
1.177e-02,0.000e+00
1.185e-02,0.000e+00
1.192e-02,0.000e+00
1.200e-02,0.000e+00
1.208e-02,0.000e+00
1.215e-02,0.000e+00
1.223e-02,0.000e+00
1.231e-02,0.000e+00
1.238e-02,0.000e+00
1.246e-02,0.000e+00
1.254e-02,0.000e+00
1.261e-02,0.000e+00
1.269e-02,0.000e+00
1.277e-02,0.000e+00
1.284e-02,0.000e+00
1.292e-02,0.000e+00
1.300e-02,0.000e+00
1.307e-02,0.000e+00
1.315e-02,0.000e+00
1.323e-02,0.000e+00
1.330e-02,0.000e+00
1.338e-02,0.000e+00
1.346e-02,0.000e+00
1.353e-02,0.000e+00
1.361e-02,0.000e+00
1.369e-02,0.000e+00
1.376e-02,0.000e+00
1.384e-02,0.000e+00
1.392e-02,0.000e+00
1.399e-02,0.000e+00
1.407e-02,0.000e+00
1.415e-02,0.000e+00
1.422e-02,0.000e+00
1.430e-02,0.000e+00
1.438e-02,0.000e+00
1.445e-02,0.000e+00
1.453e-02,0.000e+00
1.461e-02,0.000e+00
1.468e-02,0.000e+00
1.476e-02,0.000e+00
1.484e-02,0.000e+00
1.491e-02,0.000e+00
1.499e-02,0.000e+00
1.507e-02,0.000e+00
1.514e-02,0.000e+00
1.522e-02,0.000e+00
1.530e-02,0.000e+00
