transmittance,probability_density
3.025e-05,0.000e+00
9.075e-05,0.000e+00
1.512e-04,0.000e+00
2.117e-04,0.000e+00
2.722e-04,0.000e+00
3.327e-04,0.000e+00
3.932e-04,0.000e+00
4.537e-04,0.000e+00
5.142e-04,0.000e+00
5.747e-04,0.000e+00
6.352e-04,0.000e+00
6.957e-04,0.000e+00
7.562e-04,0.000e+00
8.167e-04,0.000e+00
8.772e-04,0.000e+00
9.377e-04,0.000e+00
9.983e-04,0.000e+00
1.059e-03,0.000e+00
1.119e-03,1.653e-01
1.180e-03,3.306e-01
1.240e-03,4.959e-01
1.301e-03,1.653e-01
1.361e-03,8.264e-01
1.422e-03,1.653e+00
1.482e-03,4.463e+00
1.543e-03,4.132e+00
1.603e-03,7.934e+00
1.664e-03,8.926e+00
1.724e-03,1.702e+01
1.785e-03,2.446e+01
1.845e-03,3.868e+01
1.906e-03,6.595e+01
1.966e-03,9.207e+01
2.027e-03,1.228e+02
2.087e-03,1.828e+02
2.148e-03,2.403e+02
2.208e-03,3.091e+02
2.269e-03,4.076e+02
2.329e-03,4.734e+02
2.390e-03,5.664e+02
2.450e-03,6.463e+02
2.511e-03,7.398e+02
2.571e-03,8.251e+02
2.632e-03,8.555e+02
2.692e-03,8.736e+02
2.753e-03,9.078e+02
2.813e-03,9.298e+02
2.874e-03,8.858e+02
2.934e-03,8.281e+02
2.995e-03,8.114e+02
3.055e-03,7.498e+02
3.116e-03,6.757e+02
3.176e-03,6.172e+02
3.237e-03,5.337e+02
3.297e-03,4.975e+02
3.358e-03,4.083e+02
3.418e-03,3.777e+02
3.479e-03,3.155e+02
3.539e-03,2.702e+02
3.600e-03,2.215e+02
3.660e-03,1.835e+02
3.721e-03,1.679e+02
3.781e-03,1.192e+02
3.842e-03,1.045e+02
3.902e-03,7.917e+01
3.963e-03,7.289e+01
4.023e-03,5.686e+01
4.084e-03,4.281e+01
4.144e-03,3.521e+01
4.205e-03,2.843e+01
4.265e-03,2.380e+01
4.326e-03,1.736e+01
4.386e-03,1.256e+01
4.447e-03,9.256e+00
4.507e-03,8.430e+00
4.568e-03,5.785e+00
4.628e-03,4.793e+00
4.689e-03,3.140e+00
4.749e-03,2.810e+00
4.810e-03,1.983e+00
4.870e-03,3.306e+00
4.931e-03,1.157e+00
4.991e-03,9.917e-01
5.052e-03,6.612e-01
5.112e-03,3.306e-01
5.173e-03,4.959e-01
5.233e-03,3.306e-01
5.294e-03,3.306e-01
5.354e-03,3.306e-01
5.415e-03,1.653e-01
5.475e-03,1.653e-01
5.536e-03,0.000e+00
5.596e-03,0.000e+00
5.657e-03,0.000e+00
5.717e-03,0.000e+00
5.778e-03,0.000e+00
5.838e-03,1.653e-01
5.899e-03,0.000e+00
5.959e-03,0.000e+00
6.020e-03,1.653e-01
6.080e-03,0.000e+00
6.141e-03,0.000e+00
6.201e-03,0.000e+00
6.262e-03,0.000e+00
6.322e-03,0.000e+00
6.383e-03,0.000e+00
6.443e-03,0.000e+00
6.504e-03,0.000e+00
6.564e-03,0.000e+00
6.625e-03,0.000e+00
6.685e-03,0.000e+00
6.746e-03,0.000e+00
6.806e-03,0.000e+00
6.867e-03,0.000e+00
6.927e-03,0.000e+00
6.988e-03,0.000e+00
7.048e-03,0.000e+00
7.109e-03,0.000e+00
7.169e-03,0.000e+00
7.230e-03,0.000e+00
7.290e-03,0.000e+00
7.351e-03,0.000e+00
7.411e-03,0.000e+00
7.472e-03,0.000e+00
7.532e-03,0.000e+00
7.593e-03,0.000e+00
7.653e-03,0.000e+00
7.714e-03,0.000e+00
7.774e-03,0.000e+00
7.835e-03,0.000e+00
7.895e-03,0.000e+00
7.956e-03,0.000e+00
8.016e-03,0.000e+00
8.077e-03,0.000e+00
8.137e-03,0.000e+00
8.198e-03,0.000e+00
8.258e-03,0.000e+00
8.319e-03,0.000e+00
8.379e-03,0.000e+00
8.440e-03,0.000e+00
8.500e-03,0.000e+00
8.561e-03,0.000e+00
8.621e-03,0.000e+00
8.682e-03,0.000e+00
8.742e-03,0.000e+00
8.803e-03,0.000e+00
8.863e-03,0.000e+00
8.924e-03,0.000e+00
8.984e-03,0.000e+00
9.045e-03,0.000e+00
9.105e-03,0.000e+00
9.166e-03,0.000e+00
9.226e-03,0.000e+00
9.287e-03,0.000e+00
9.347e-03,0.000e+00
9.408e-03,0.000e+00
9.468e-03,0.000e+00
9.529e-03,0.000e+00
9.589e-03,0.000e+00
9.650e-03,0.000e+00
9.710e-03,0.000e+00
9.771e-03,0.000e+00
9.831e-03,0.000e+00
9.892e-03,0.000e+00
9.952e-03,0.000e+00
1.001e-02,0.000e+00
1.007e-02,0.000e+00
1.013e-02,0.000e+00
1.019e-02,0.000e+00
1.025e-02,0.000e+00
1.032e-02,0.000e+00
1.038e-02,0.000e+00
1.044e-02,0.000e+00
1.050e-02,0.000e+00
1.056e-02,0.000e+00
1.062e-02,0.000e+00
1.068e-02,0.000e+00
1.074e-02,0.000e+00
1.080e-02,0.000e+00
1.086e-02,0.000e+00
1.092e-02,0.000e+00
1.098e-02,0.000e+00
1.104e-02,0.000e+00
1.110e-02,0.000e+00
1.116e-02,0.000e+00
1.122e-02,0.000e+00
1.128e-02,0.000e+00
1.134e-02,0.000e+00
1.140e-02,0.000e+00
1.146e-02,0.000e+00
1.153e-02,0.000e+00
1.159e-02,0.000e+00
1.165e-02,0.000e+00
1.171e-02,0.000e+00
1.177e-02,0.000e+00
1.183e-02,0.000e+00
1.189e-02,0.000e+00
1.195e-02,0.000e+00
1.201e-02,0.000e+00
1.207e-02,0.000e+00
