transmittance,probability_density
9.191e-04,1.361e-01
2.757e-03,5.933e-01
4.595e-03,1.502e+00
6.433e-03,2.188e+00
8.271e-03,3.549e+00
1.011e-02,5.182e+00
1.195e-02,7.115e+00
1.379e-02,9.265e+00
1.562e-02,1.248e+01
1.746e-02,1.601e+01
1.930e-02,1.986e+01
2.114e-02,2.364e+01
2.298e-02,2.801e+01
2.481e-02,3.127e+01
2.665e-02,3.494e+01
2.849e-02,3.712e+01
3.033e-02,3.733e+01
3.217e-02,3.663e+01
3.400e-02,3.546e+01
3.584e-02,3.312e+01
3.768e-02,3.013e+01
3.952e-02,2.669e+01
4.136e-02,2.203e+01
4.320e-02,1.889e+01
4.503e-02,1.573e+01
4.687e-02,1.237e+01
4.871e-02,1.000e+01
5.055e-02,8.029e+00
5.239e-02,5.781e+00
5.422e-02,4.883e+00
5.606e-02,3.500e+00
5.790e-02,2.939e+00
5.974e-02,2.123e+00
6.158e-02,1.475e+00
6.341e-02,1.083e+00
6.525e-02,7.185e-01
6.709e-02,5.661e-01
6.893e-02,5.171e-01
7.077e-02,2.939e-01
7.260e-02,2.014e-01
7.444e-02,2.177e-01
7.628e-02,1.633e-01
7.812e-02,6.532e-02
7.996e-02,6.532e-02
8.180e-02,4.899e-02
8.363e-02,3.266e-02
8.547e-02,3.266e-02
8.731e-02,2.722e-02
8.915e-02,1.633e-02
9.099e-02,0.000e+00
9.282e-02,5.444e-03
9.466e-02,0.000e+00
9.650e-02,0.000e+00
9.834e-02,0.000e+00
1.002e-01,5.444e-03
1.020e-01,0.000e+00
1.039e-01,5.444e-03
1.057e-01,0.000e+00
1.075e-01,0.000e+00
1.094e-01,0.000e+00
1.112e-01,0.000e+00
1.130e-01,0.000e+00
1.149e-01,0.000e+00
1.167e-01,0.000e+00
1.186e-01,0.000e+00
1.204e-01,0.000e+00
1.222e-01,0.000e+00
1.241e-01,0.000e+00
1.259e-01,0.000e+00
1.277e-01,0.000e+00
1.296e-01,0.000e+00
1.314e-01,0.000e+00
1.333e-01,0.000e+00
1.351e-01,0.000e+00
1.369e-01,0.000e+00
1.388e-01,0.000e+00
1.406e-01,0.000e+00
1.425e-01,0.000e+00
1.443e-01,0.000e+00
1.461e-01,0.000e+00
1.480e-01,0.000e+00
1.498e-01,0.000e+00
1.516e-01,0.000e+00
1.535e-01,0.000e+00
1.553e-01,0.000e+00
1.572e-01,0.000e+00
1.590e-01,0.000e+00
1.608e-01,0.000e+00
1.627e-01,0.000e+00
1.645e-01,0.000e+00
1.663e-01,0.000e+00
1.682e-01,0.000e+00
1.700e-01,0.000e+00
1.719e-01,0.000e+00
1.737e-01,0.000e+00
1.755e-01,0.000e+00
1.774e-01,0.000e+00
1.792e-01,0.000e+00
1.811e-01,0.000e+00
1.829e-01,0.000e+00
1.847e-01,0.000e+00
1.866e-01,0.000e+00
1.884e-01,0.000e+00
1.902e-01,0.000e+00
1.921e-01,0.000e+00
1.939e-01,0.000e+00
1.958e-01,0.000e+00
1.976e-01,0.000e+00
1.994e-01,0.000e+00
2.013e-01,0.000e+00
2.031e-01,0.000e+00
2.049e-01,0.000e+00
2.068e-01,0.000e+00
2.086e-01,0.000e+00
2.105e-01,0.000e+00
2.123e-01,0.000e+00
2.141e-01,0.000e+00
2.160e-01,0.000e+00
2.178e-01,0.000e+00
2.197e-01,0.000e+00
2.215e-01,0.000e+00
2.233e-01,0.000e+00
2.252e-01,0.000e+00
2.270e-01,0.000e+00
2.288e-01,0.000e+00
2.307e-01,0.000e+00
2.325e-01,0.000e+00
2.344e-01,0.000e+00
2.362e-01,0.000e+00
2.380e-01,0.000e+00
2.399e-01,0.000e+00
2.417e-01,0.000e+00
2.435e-01,0.000e+00
2.454e-01,0.000e+00
2.472e-01,0.000e+00
2.491e-01,0.000e+00
2.509e-01,0.000e+00
2.527e-01,0.000e+00
2.546e-01,0.000e+00
2.564e-01,0.000e+00
2.583e-01,0.000e+00
2.601e-01,0.000e+00
2.619e-01,0.000e+00
2.638e-01,0.000e+00
2.656e-01,0.000e+00
2.674e-01,0.000e+00
2.693e-01,0.000e+00
2.711e-01,0.000e+00
2.730e-01,0.000e+00
2.748e-01,0.000e+00
2.766e-01,0.000e+00
2.785e-01,0.000e+00
2.803e-01,0.000e+00
2.821e-01,0.000e+00
2.840e-01,0.000e+00
2.858e-01,0.000e+00
2.877e-01,0.000e+00
2.895e-01,0.000e+00
2.913e-01,0.000e+00
2.932e-01,0.000e+00
2.950e-01,0.000e+00
2.969e-01,0.000e+00
2.987e-01,0.000e+00
3.005e-01,0.000e+00
3.024e-01,0.000e+00
3.042e-01,0.000e+00
3.060e-01,0.000e+00
3.079e-01,0.000e+00
3.097e-01,0.000e+00
3.116e-01,0.000e+00
3.134e-01,0.000e+00
3.152e-01,0.000e+00
3.171e-01,0.000e+00
3.189e-01,0.000e+00
3.207e-01,0.000e+00
3.226e-01,0.000e+00
3.244e-01,0.000e+00
3.263e-01,0.000e+00
3.281e-01,0.000e+00
3.299e-01,0.000e+00
3.318e-01,0.000e+00
3.336e-01,0.000e+00
3.355e-01,0.000e+00
3.373e-01,0.000e+00
3.391e-01,0.000e+00
3.410e-01,0.000e+00
3.428e-01,0.000e+00
3.446e-01,0.000e+00
3.465e-01,0.000e+00
3.483e-01,0.000e+00
3.502e-01,0.000e+00
3.520e-01,0.000e+00
3.538e-01,0.000e+00
3.557e-01,0.000e+00
3.575e-01,0.000e+00
3.593e-01,0.000e+00
3.612e-01,0.000e+00
3.630e-01,0.000e+00
3.649e-01,0.000e+00
3.667e-01,0.000e+00
